        dNpi/dy       Tch[MeV]     dVdy[fm^3]       Vc[fm^3]         gammaS     K/pi_toGCE    Xi/pi_toGCE   phi/pi_toGCE     p/pi_toGCE Omega/pi_toGCE    La/pi_toGCE
              3       0.173144            7.2          11.52       0.762394       0.765238       0.215174        1.29315       0.481881      0.0780904       0.417258
        3.20365       0.172973        7.68877         12.302       0.763213       0.782411       0.235746        1.26966       0.506386      0.0887252       0.443881
        3.42113       0.172802        8.21072        13.1371       0.764084       0.799159       0.257658        1.24797       0.531169        0.10058       0.471095
        3.65337       0.172631         8.7681         14.029       0.765011       0.815337       0.280835        1.22798       0.556069       0.113717       0.498701
        3.90138       0.172461        9.36332        14.9813       0.765997       0.830811       0.305167         1.2096       0.580913       0.128179       0.526481
        4.16623        0.17229        9.99894        15.9983       0.767045       0.845466       0.330515        1.19274       0.605522       0.143992         0.5542
        4.44905       0.172119        10.6777        17.0844       0.768159       0.859209       0.356708         1.1773       0.629718       0.161155       0.581623
        4.75107       0.171948        11.4026        18.2441       0.769342       0.871973       0.383549        1.16317       0.653329       0.179644       0.608518
         5.0736       0.171777        12.1766        19.4826         0.7706        0.88372       0.410823        1.15026       0.676195       0.199407       0.634665
        5.41802       0.171607        13.0032        20.8052       0.771935       0.894442       0.438308        1.13846       0.698173       0.220364       0.659869
        5.78582       0.171436         13.886        22.2175       0.773352       0.904154       0.465774        1.12769       0.719146       0.242412       0.683964
        6.17858       0.171265        14.8286        23.7258       0.774856         0.9129       0.493004        1.11786        0.73902       0.265424        0.70682
        6.59801       0.171094        15.8352        25.3364       0.776451       0.920736       0.519792        1.10889        0.75773       0.289254       0.728342
        7.04592       0.170924        16.9102        27.0563       0.778142       0.927737       0.545956        1.10071       0.775239       0.313746       0.748475
        7.52423       0.170753        18.0581         28.893       0.779933       0.933982       0.571341        1.09324       0.791538       0.338731       0.767201
        8.03501       0.170582         19.284        30.8544        0.78183       0.939552       0.595822        1.08642       0.806639       0.364042       0.784533
        8.58046       0.170411        20.5931         32.949       0.783838        0.94453       0.619305        1.08018       0.820578       0.389513       0.800512
        9.16294       0.170241        21.9911        35.1857       0.785961       0.948989       0.641727        1.07448       0.833407       0.414986       0.815198
        9.78496        0.17007        23.4839        37.5743       0.788206       0.952999       0.663053        1.06925        0.84519       0.440315        0.82867
        10.4492       0.169899        25.0781         40.125       0.790577       0.956619       0.683271        1.06445       0.855999       0.465368       0.841014
        11.1586       0.169728        26.7805        42.8488        0.79308       0.959901       0.702392        1.06004       0.865912       0.490028       0.852321
         11.916       0.169557        28.5985        45.7576        0.79572       0.962889        0.72044        1.05598       0.875006       0.514196       0.862683
         12.725       0.169387        30.5399        48.8639       0.798501       0.965619       0.737452        1.05224       0.883357       0.537789       0.872189
        13.5888       0.169216        32.6131         52.181        0.80143       0.968122       0.753472        1.04878       0.891038       0.560742       0.880922
        14.5113       0.169045         34.827        55.7232        0.80451       0.970424       0.768548        1.04558       0.898115       0.583001        0.88896
        15.4964       0.168874        37.1912         59.506       0.807747       0.972545       0.782731        1.04262       0.904647       0.604527       0.896371
        16.5483       0.168704         39.716        63.5455       0.811145       0.974503       0.796071        1.03986       0.910691       0.625293       0.903217
        17.6717       0.168533        42.4121        67.8593       0.814707       0.976313       0.808616        1.03731       0.916292        0.64528       0.909554
        18.8713       0.168362        45.2912        72.4659       0.818436        0.97799       0.820414        1.03493       0.921494       0.664479       0.915429
        20.1524       0.168191        48.3658        77.3852       0.822336       0.979544       0.831507        1.03271       0.926333       0.682885       0.920885
        21.5204       0.168021        51.6491        82.6385       0.826408       0.980986       0.841938        1.03065       0.930842       0.700502       0.925958
        22.9813        0.16785        55.1552        88.2484       0.830654       0.982325       0.851744        1.02872       0.935047       0.717336       0.930682
        24.5414       0.167679        58.8994        94.2391       0.835073       0.983569       0.860963        1.02692       0.938975       0.733399       0.935084
        26.2074       0.167508        62.8978        100.636       0.839665       0.984724       0.869628        1.02524       0.942647       0.748703        0.93919
        27.9865       0.167338        67.1676        107.468       0.844427       0.985799        0.87777        1.02367       0.946082       0.763266       0.943023
        29.8863       0.167167        71.7272        114.764       0.849357       0.986798        0.88542         1.0222       0.949299       0.777106       0.946603
        31.9152       0.166996        76.5964        122.554       0.854449       0.987727       0.892605        1.02082       0.952312       0.790244       0.949948
        34.0817       0.166825        81.7961        130.874       0.859697       0.988591       0.899352        1.01954       0.955138       0.802699       0.953076
        36.3953       0.166654        87.3488        139.758       0.865092       0.989395       0.905685        1.01833       0.957787       0.814496       0.956001
         38.866       0.166484        93.2785        149.246       0.870625       0.990142       0.911628        1.01721       0.960273       0.825657       0.958737
        41.5044       0.166313        99.6106        159.377       0.876283       0.990836       0.917203        1.01615       0.962606       0.836205       0.961297
        44.3219       0.166142        106.373        170.196       0.882052       0.991482        0.92243        1.01516       0.964797       0.846164       0.963692
        47.3307       0.165971        113.594         181.75       0.887916       0.992082        0.92733        1.01423       0.966855       0.855558       0.965934
        50.5438       0.165801        121.305        194.088       0.893857       0.992639        0.93192        1.01336       0.968787        0.86441       0.968032
        53.9749        0.16563         129.54        207.264       0.899854       0.993156       0.936219        1.01255       0.970603       0.872744       0.969996
         57.639       0.165459        138.334        221.334       0.905884       0.993636       0.940244        1.01178       0.972309       0.880584       0.971834
        61.5518       0.165288        147.724        236.359       0.911923       0.994082        0.94401        1.01107       0.973912       0.887952       0.973554
        65.7302       0.165118        157.752        252.404       0.917945       0.994494       0.947532         1.0104       0.975419       0.894871       0.975164
        70.1922       0.164947        168.461        269.538       0.923922       0.994877       0.950826        1.00977       0.976836       0.901364       0.976671
        74.9572       0.164776        179.897        287.836       0.929824       0.995231       0.953904        1.00918       0.978167       0.907453       0.978081
        80.0457       0.164605         192.11        307.375       0.935623       0.995559        0.95678        1.00862       0.979419       0.913158         0.9794
        85.4795       0.164434        205.151        328.241       0.941287       0.995862       0.959466         1.0081       0.980597       0.918501       0.980634
        91.2823       0.164264        219.077        350.524       0.946787       0.996143       0.961973        1.00762       0.981703       0.923501       0.981789
        97.4789       0.164093        233.949        374.319       0.952092       0.996402       0.964314        1.00716       0.982744       0.928179        0.98287
        104.096       0.163922        249.831         399.73       0.957175       0.996642       0.966499        1.00673       0.983723       0.932553       0.983881
        111.163       0.163751        266.791        426.865       0.962009       0.996864       0.968538        1.00633       0.984643       0.936642       0.984827
        118.709       0.163581        284.902        455.843        0.96657       0.997068       0.970441        1.00595       0.985509       0.940463       0.985712
        126.768        0.16341        304.242        486.787       0.970838       0.997258       0.972217         1.0056       0.986323       0.944034       0.986541
        135.373       0.163239        324.895        519.833       0.974796       0.997433       0.973874        1.00526        0.98709       0.947371       0.987317
        144.563       0.163068        346.951        555.121       0.978431       0.997594       0.975422        1.00495        0.98781       0.950489       0.988044
        154.376       0.162898        370.504        592.806       0.981736       0.997744       0.976867        1.00466       0.988489       0.953404       0.988724
        164.856       0.162727        395.655        633.048       0.984709       0.997883       0.978217        1.00438       0.989128       0.956129       0.989363
        176.047       0.162556        422.514        676.022       0.987351       0.998012        0.97948        1.00413       0.989729       0.958678       0.989961
        187.998       0.162385        451.196        721.914        0.98967       0.998131       0.980661        1.00389       0.990296       0.961064       0.990523
        200.761       0.162215        481.825        770.921       0.991679       0.998242       0.981766        1.00366       0.990829       0.963299        0.99105
        214.389       0.162044        514.534        823.254       0.993396       0.998346       0.982802        1.00345       0.991332       0.965393       0.991545
        228.943       0.161873        549.463        879.141       0.994839       0.998442       0.983773        1.00324       0.991807       0.967356       0.992011
        244.485       0.161702        586.763        938.821       0.996034       0.998531       0.984684        1.00306       0.992254       0.969199       0.992448
        261.081       0.161531        626.595        1002.55       0.997007       0.998615       0.985539        1.00288       0.992675       0.970929        0.99286
        278.805       0.161361        669.131        1070.61       0.997783       0.998693       0.986343        1.00271       0.993073       0.972555       0.993248
        297.731        0.16119        714.555        1143.29       0.998392       0.998765       0.987098        1.00255       0.993449       0.974084       0.993613
        317.943       0.161019        763.062         1220.9       0.998858       0.998832       0.987808         1.0024       0.993803       0.975522       0.993956
        339.526       0.160848        814.862        1303.78       0.999208       0.998895       0.988477        1.00226       0.994138       0.976875        0.99428
        362.575       0.160678        870.179        1392.29       0.999464       0.998954       0.989107        1.00213       0.994454       0.978149       0.994586
        387.188       0.160507        929.251         1486.8       0.999647       0.999009         0.9897          1.002       0.994752       0.979349       0.994874
        413.472       0.160336        992.333        1587.73       0.999774        0.99906        0.99026        1.00188       0.995035       0.980481       0.995147
         441.54       0.160165         1059.7        1695.51       0.999859       0.999109       0.990788        1.00177       0.995301       0.981549       0.995404
        471.514       0.159995        1131.63        1810.61       0.999915       0.999154       0.991287        1.00167       0.995553       0.982558       0.995647
        503.523       0.159824        1208.45        1933.53       0.999951       0.999198       0.991759        1.00157       0.995792       0.983512       0.995878
        537.704       0.159653        1290.49        2064.78       0.999972        0.99924       0.992206        1.00147       0.996018       0.984415       0.996097
        574.206       0.159482        1378.09        2204.95       0.999985       0.999281        0.99263        1.00139       0.996231       0.985272       0.996304
        613.186       0.159311        1471.65        2354.63       0.999992       0.999321       0.993033        1.00131       0.996434       0.986085       0.996502
        654.812       0.159141        1571.55        2514.48       0.999996       0.999359       0.993415        1.00123       0.996625       0.986858       0.996689
        699.263        0.15897        1678.23        2685.17       0.999998       0.999397       0.993778        1.00117       0.996807       0.987594       0.996867
        746.732       0.158799        1792.16        2867.45       0.999999       0.999434       0.994123         1.0011       0.996978       0.988294       0.997037
        797.424       0.158628        1913.82        3062.11              1        0.99947       0.994451        1.00104       0.997141       0.988959       0.997198
        851.557       0.158458        2043.74        3269.98              1       0.999505       0.994763        1.00099       0.997295       0.989591       0.997352
        909.365       0.158287        2182.47        3491.96              1       0.999538       0.995059        1.00094       0.997441        0.99019       0.997497
        971.096       0.158116        2330.63        3729.01              1        0.99957       0.995338        1.00089       0.997579       0.990756       0.997635
        1037.02       0.157945        2488.85        3982.15              1         0.9996       0.995602        1.00085        0.99771        0.99129       0.997766
        1107.42       0.157775         2657.8        4252.48              1       0.999628        0.99585         1.0008       0.997833       0.991791       0.997889
        1182.59       0.157604        2838.22        4541.16              1       0.999654       0.996084        1.00076        0.99795        0.99226       0.998005
        1262.87       0.157433         3030.9        4849.43              1       0.999677       0.996302        1.00073       0.998061       0.992697       0.998115
         1348.6       0.157262        3236.65        5178.63              1       0.999698       0.996505        1.00069       0.998165       0.993101       0.998217
        1440.15       0.157091        3456.36        5530.18              1       0.999715       0.996694        1.00065       0.998264       0.993475       0.998313
        1537.92       0.156921           3691         5905.6              1        0.99973       0.996869        1.00062       0.998357       0.993819       0.998403
        1642.32        0.15675        3941.56         6306.5              1       0.999743       0.997031        1.00058       0.998445       0.994134       0.998487
        1753.81       0.156579        4209.13        6734.61              1       0.999752       0.997181        1.00055       0.998527       0.994424       0.998565
        1872.86       0.156408        4494.87        7191.79              1        0.99976       0.997319        1.00052       0.998605        0.99469       0.998638
           2000       0.156238           4800           7680              1       0.999766       0.997448        1.00048       0.998679       0.994935       0.998706
